#
#Integration time [ms]:   8.000
#Averaging Nr. [scans]: 300
#Smoothing Nr. [pixels]: 0
#Data measured with spectrometer [name]: 2010165U1
#Wave    Sample    Dark      Reference Scope
#[nm]    [counts]  [counts]  [counts] 
#
407.505   321.235   319.339   316.832
407.651   270.932   272.113   267.636
407.797   311.520   312.577   307.541
407.944   290.309   285.841   287.397
408.090   301.987   300.902   297.150
408.236   268.635   266.121   267.532
408.382   326.368   328.657   322.315
408.529   261.807   264.640   259.107
408.675   350.708   352.652   350.953
408.821   282.513   284.109   281.691
408.968   376.520   376.428   376.376
409.114   262.343   262.196   258.656
409.260   335.709   337.326   332.430
409.406   275.799   275.226   270.402
409.553   326.102   327.127   322.259
409.699   249.980   248.989   247.515
409.845   345.585   350.761   341.989
409.991   251.932   253.273   249.498
410.137   353.989   350.611   351.647
410.284   272.296   277.455   265.676
410.430   346.704   346.429   346.281
410.576   267.157   274.171   263.502
410.722   338.171   335.845   336.306
410.868   284.259   285.365   283.782
411.015   381.059   382.430   377.694
411.161   269.682   269.729   266.124
411.307   376.862   377.423   374.611
411.453   282.264   286.008   278.784
411.599   362.786   360.599   359.104
411.746   298.388   304.211   290.286
411.892   379.079   369.349   368.087
412.038   387.129   313.534   305.588
412.184  1083.969   460.610   470.294
412.330  1121.333   431.151   439.375
412.476  1240.382   493.803   509.179
412.622  1198.479   426.071   436.178
412.769  1303.514   504.404   516.047
412.915  1264.976   437.353   441.073
413.061  1374.544   503.140   519.007
413.207  1355.341   460.796   470.733
413.353  1461.734   524.115   549.118
413.499  1441.418   473.150   483.342
413.645  1553.132   547.597   568.707
413.791  1513.332   480.179   497.054
413.938  1644.438   567.615   586.268
414.084  1630.696   512.525   539.609
414.230  1714.937   554.534   582.701
414.376  1722.011   529.777   560.313
414.522  1820.160   578.431   609.618
414.668  1813.730   529.724   563.373
414.814  1975.117   639.996   683.135
414.960  1909.391   530.161   573.555
415.106  2056.448   636.005   677.567
415.252  2012.210   559.776   604.271
415.398  2146.992   632.660   685.298
415.544  2169.025   621.962   675.316
415.690  2262.470   662.279   715.886
415.836  2253.612   605.615   663.820
415.982  2387.424   677.414   746.371
416.128  2383.331   626.162   692.253
416.274  2537.038   733.676   815.163
416.420  2502.333   646.356   729.350
416.566  2656.985   739.875   824.038
416.712  2625.472   659.200   751.250
416.858  2766.141   734.490   831.002
417.004  2753.941   677.254   773.600
417.150  2910.192   757.139   866.494
417.296  2880.096   678.115   788.233
417.442  3022.332   767.983   888.245
417.588  2975.796   700.398   822.543
417.734  3113.561   782.654   909.682
417.880  3081.691   736.512   866.166
418.026  3191.959   800.067   944.203
418.172  3151.278   754.889   907.788
418.318  3235.609   817.636   961.171
418.464  3135.676   716.722   882.132
418.610  3266.961   834.695   996.184
418.756  3152.347   731.574   890.352
418.902  3254.660   816.571   997.504
419.048  3178.523   740.694   923.352
419.194  3312.400   829.360  1025.156
419.340  3251.169   751.357   947.725
419.486  3392.812   852.996  1061.033
419.631  3319.939   764.852   972.713
419.777  3470.134   868.402  1079.738
419.923  3394.946   760.191   980.569
420.069  3517.047   841.567  1077.057
420.215  3474.676   764.094   999.807
420.361  3655.151   878.192  1126.589
420.507  3622.463   803.850  1056.603
420.653  3707.269   840.365  1098.329
420.799  3679.865   783.523  1046.463
420.944  3786.196   830.755  1097.672
421.090  3756.212   775.980  1053.955
421.236  3895.591   870.076  1158.909
421.382  3845.589   797.991  1085.679
421.528  3918.522   883.499  1177.149
421.674  3860.747   810.731  1116.703
421.819  3978.830   895.226  1202.264
421.965  3890.651   825.918  1142.704
422.111  3936.774   886.073  1214.215
422.257  3876.946   806.081  1139.898
422.403  3992.513   899.523  1248.697
422.549  3870.421   802.142  1141.599
422.694  3958.183   892.192  1240.627
422.840  3894.269   829.544  1185.308
422.986  3951.501   869.172  1226.878
423.132  3942.871   842.048  1212.044
423.278  3996.085   880.531  1258.753
423.423  3959.189   825.727  1209.367
423.569  4075.281   902.443  1294.424
423.715  4002.459   817.504  1209.223
423.861  4122.862   915.150  1320.801
424.006  4058.074   833.437  1240.285
424.152  4162.582   918.523  1335.672
424.298  4108.721   859.590  1278.130
424.444  4148.196   891.986  1319.740
424.589  4107.435   841.303  1269.375
424.735  4165.956   911.883  1346.885
424.881  4077.062   808.248  1245.223
425.027  4140.161   900.141  1342.194
425.172  4074.644   820.186  1273.574
425.318  4167.423   917.484  1368.706
425.464  4095.588   857.036  1313.329
425.609  4128.659   894.493  1356.738
425.755  4047.168   823.792  1295.927
425.901  4119.941   908.023  1373.346
426.047  4020.779   836.454  1307.068
426.192  4070.854   898.499  1366.509
426.338  3974.620   811.184  1287.906
426.484  4042.199   901.841  1374.312
426.629  3902.138   803.690  1279.091
426.775  3974.383   874.704  1358.072
426.921  3903.233   839.260  1326.649
427.066  3949.272   908.225  1392.716
427.212  3820.026   814.614  1302.393
427.357  3867.685   903.302  1394.332
427.503  3699.594   802.801  1294.128
427.649  3770.523   881.778  1378.313
427.794  3667.609   815.934  1314.816
427.940  3731.318   898.814  1405.735
428.086  3622.728   793.469  1293.392
428.231  3716.081   874.290  1379.508
428.377  3637.976   792.959  1290.568
428.522  3727.489   889.212  1394.641
428.668  3610.735   776.978  1282.664
428.814  3703.687   869.523  1374.317
428.959  3636.760   781.633  1283.097
429.105  3707.329   850.155  1365.970
429.250  3638.753   776.368  1294.429
429.396  3705.616   841.150  1363.031
429.542  3656.363   768.481  1287.660
429.687  3730.002   842.541  1363.360
429.833  3593.227   735.728  1256.598
429.978  3656.399   843.822  1367.784
430.124  3529.647   764.085  1291.855
430.269  3599.490   846.427  1376.822
430.415  3486.711   774.870  1306.800
430.560  3452.611   798.647  1331.937
430.706  3343.483   739.211  1274.102
430.852  3395.375   816.277  1360.636
430.997  3236.938   726.588  1256.912
431.143  3301.788   801.535  1345.211
431.288  3197.397   726.844  1265.732
431.434  3246.572   794.612  1339.645
431.579  3169.802   735.943  1286.691
431.725  3226.658   814.004  1366.264
431.870  3149.045   728.755  1277.929
432.016  3260.202   814.376  1368.579
432.161  3147.584   702.153  1266.434
432.307  3262.472   793.783  1364.125
432.452  3179.524   704.061  1271.089
432.597  3262.477   768.468  1338.881
432.743  3254.669   729.879  1313.065
432.888  3318.294   779.460  1363.551
433.034  3241.158   692.177  1276.546
433.179  3377.981   810.648  1399.847
433.325  3297.498   741.088  1334.681
433.470  3339.354   768.900  1370.514
433.616  3262.454   719.563  1331.287
433.761  3321.106   798.161  1409.525
433.906  3211.733   696.692  1307.714
434.052  3300.754   796.920  1420.896
434.197  3191.099   715.060  1340.350
434.343  3274.553   797.871  1429.345
434.488  3190.134   732.877  1364.033
434.634  3253.130   779.385  1421.669
434.779  3143.778   705.404  1351.274
434.924  3225.781   786.000  1446.880
435.070  3173.242   726.344  1390.731
435.215  3270.886   803.789  1465.067
435.360  3215.842   724.137  1401.870
435.506  3323.269   811.555  1506.265
435.651  3269.130   755.229  1454.941
435.797  3296.733   754.036  1447.516
435.942  3272.557   704.719  1409.330
436.087  3408.159   800.615  1518.485
436.233  3313.384   713.646  1435.189
436.378  3458.521   809.787  1543.852
436.523  3434.240   749.220  1494.943
436.669  3521.709   816.982  1577.315
436.814  3460.520   749.378  1507.121
436.959  3522.690   799.635  1566.725
437.105  3482.048   747.978  1530.849
437.250  3537.682   787.591  1587.330
437.395  3474.406   727.986  1533.441
437.540  3568.653   796.148  1610.694
437.686  3485.670   726.602  1544.920
437.831  3589.403   826.651  1654.540
437.976  3537.377   774.240  1615.712
438.122  3620.561   822.354  1684.893
438.267  3515.543   725.374  1591.021
438.412  3623.397   819.044  1703.588
438.557  3545.170   735.804  1627.751
438.703  3633.670   819.361  1726.481
438.848  3581.082   764.571  1687.148
438.993  3688.015   850.471  1789.056
439.138  3576.629   745.707  1697.820
439.284  3725.745   854.432  1821.914
439.429  3653.742   791.247  1761.614
439.574  3761.321   868.417  1861.754
439.719  3701.246   794.408  1805.218
439.865  3806.052   859.768  1885.725
440.010  3744.885   771.117  1809.209
440.155  3890.797   863.932  1918.431
440.300  3878.379   796.459  1872.962
440.445  4026.411   882.895  1968.161
440.591  4008.604   813.015  1916.185
440.736  4168.280   879.010  2005.722
440.881  4201.733   840.763  1981.044
441.026  4335.946   882.451  2040.279
441.171  4325.208   790.235  1958.981
441.316  4528.193   893.014  2092.064
441.462  4578.303   840.763  2060.404
441.607  4766.758   941.296  2174.856
441.752  4747.202   846.989  2109.645
441.897  4902.948   930.102  2209.713
442.042  4883.047   847.769  2144.335
442.187  5007.440   911.160  2234.484
442.332  4949.319   826.027  2164.109
442.478  5045.506   926.760  2287.201
442.623  5027.618   882.887  2261.435
442.768  5143.623   983.105  2391.140
442.913  5000.649   880.199  2303.495
443.058  5095.853   991.643  2452.265
443.203  4956.869   918.434  2397.842
443.348  5011.608   968.886  2482.219
443.493  4914.161   924.869  2449.983
443.638  4988.646   990.390  2543.418
443.784  4842.433   879.300  2466.055
443.929  4925.769   970.115  2590.336
444.074  4888.939   916.471  2560.009
444.219  5031.267  1030.639  2696.021
444.364  5020.067   951.385  2647.625
444.509  5121.045   989.538  2715.896
444.654  5171.236   944.516  2701.156
444.799  5361.865  1005.732  2798.405
444.944  5432.150   961.362  2787.257
445.089  5570.976  1003.383  2854.202
445.234  5674.948   954.392  2832.145
445.379  5913.928  1039.532  2949.385
445.524  5995.388   954.526  2913.126
445.669  6181.112  1010.448  2996.804
445.814  6237.381   963.927  2986.663
445.959  6484.442  1044.558  3115.144
446.104  6568.556  1009.737  3115.401
446.249  6679.674  1043.149  3188.043
446.394  6681.299  1012.061  3190.095
446.539  6869.458  1087.317  3300.633
446.684  6758.728   990.230  3241.896
446.829  6925.227  1097.259  3394.918
446.974  6849.178  1024.315  3358.300
447.119  6966.545  1116.610  3509.313
447.264  6884.243  1026.422  3452.965
447.409  7031.512  1112.012  3591.359
447.554  6966.479  1043.706  3568.634
447.699  7039.440  1110.841  3672.047
447.844  6969.866  1055.398  3656.429
447.989  7133.885  1151.587  3821.686
448.134  7128.867  1082.019  3805.040
448.279  7330.121  1160.865  3929.492
448.424  7293.910  1097.313  3920.859
448.568  7423.389  1151.641  4018.044
448.713  7456.898  1084.478  3992.739
448.858  7781.431  1212.271  4186.184
449.003  7877.743  1122.351  4176.108
449.148  7994.157  1194.723  4283.855
449.293  8039.352  1141.312  4290.704
449.438  8370.105  1226.064  4449.276
449.583  8361.504  1125.588  4365.749
449.728  8707.912  1260.127  4604.665
449.872  8707.636  1157.381  4558.785
450.017  8913.498  1232.995  4693.856
450.162  9009.549  1169.838  4685.142
450.307  9288.556  1279.880  4875.531
450.452  9333.206  1197.964  4858.018
450.597  9588.977  1300.591  5059.825
450.742  9656.420  1233.299  5037.666
450.886  9890.586  1290.088  5171.439
451.031 10030.485  1264.073  5219.104
451.176 10237.188  1328.468  5353.849
451.321 10290.588  1242.968  5352.744
451.466 10539.364  1344.728  5532.303
451.611 10654.222  1279.780  5570.635
451.755 10832.452  1381.214  5738.898
451.900 10795.483  1279.473  5727.082
452.045 11118.837  1388.006  5934.974
452.190 11117.293  1300.211  5927.407
452.334 11418.160  1407.327  6134.628
452.479 11446.217  1360.436  6154.258
452.624 11637.079  1444.667  6348.735
452.769 11627.496  1351.065  6300.269
452.914 11995.259  1457.784  6547.211
453.058 12040.851  1396.695  6554.742
453.203 12355.387  1495.008  6790.934
453.348 12432.857  1422.490  6810.744
453.493 12731.028  1503.854  6987.953
453.637 12878.910  1415.576  6991.206
453.782 13330.284  1534.134  7245.099
453.927 13373.653  1457.098  7259.752
454.071 13742.177  1550.897  7455.901
454.216 14031.004  1498.342  7525.575
454.361 14428.019  1582.758  7703.867
454.506 14629.648  1535.409  7737.615
454.650 15025.523  1597.847  7958.260
454.795 15159.473  1537.955  7989.329
454.940 15665.605  1622.800  8250.920
455.084 15674.613  1520.175  8200.028
455.229 16157.254  1646.198  8507.385
455.374 16056.437  1569.104  8515.253
455.518 16320.875  1675.735  8784.521
455.663 16322.662  1598.817  8837.276
455.808 16398.961  1671.969  9023.008
455.952 16227.413  1591.410  9011.584
456.097 16318.668  1670.785  9251.161
456.242 16157.060  1613.464  9321.994
456.386 16237.901  1753.796  9562.835
456.531 16007.681  1643.088  9599.345
456.676 15982.426  1761.424  9811.212
456.820 15831.287  1692.529  9909.003
456.965 15877.780  1782.276 10122.948
457.109 15815.938  1708.143 10184.039
457.254 15888.218  1778.146 10344.777
457.399 16009.898  1716.888 10452.618
457.543 16313.052  1809.548 10683.948
457.688 16678.252  1738.636 10757.703
457.832 17019.555  1827.884 10912.452
457.977 17412.734  1753.492 10988.838
458.122 18123.486  1845.101 11237.271
458.266 18643.139  1787.602 11258.315
458.411 19397.449  1852.464 11469.782
458.555 20046.801  1799.885 11540.021
458.700 20783.611  1919.368 11788.203
458.844 21212.293  1790.169 11751.104
458.989 22039.176  1883.335 11969.785
459.134 22573.477  1838.810 12065.854
459.278 23157.531  1917.028 12282.741
459.423 23434.383  1848.767 12332.903
459.567 23681.545  1906.896 12463.232
459.712 23940.355  1901.123 12562.246
459.856 24199.168  1947.768 12733.595
460.001 23922.125  1853.066 12731.944
460.145 23802.082  1916.651 12890.704
460.290 23567.879  1898.919 12953.881
460.434 23454.223  1999.850 13140.748
460.579 23095.752  1924.820 13241.742
460.723 22595.434  1976.703 13330.892
460.868 22000.520  1888.710 13350.612
461.012 21809.885  1964.987 13542.285
461.157 21464.826  1927.024 13592.698
461.301 21245.143  2008.616 13805.145
461.446 20658.379  1901.317 13690.218
461.590 20522.723  2005.387 13898.299
461.734 20398.547  1917.433 13923.914
461.879 20656.391  2030.486 14158.779
462.023 20556.713  1934.656 14096.450
462.168 20682.191  1971.497 14201.162
462.312 20809.135  1896.478 14154.451
462.457 21377.289  2003.961 14319.315
462.601 21826.459  1928.707 14333.812
462.745 22618.248  2038.105 14584.977
462.890 23042.799  1934.206 14504.098
463.034 23536.695  1993.347 14579.512
463.179 24196.727  1929.381 14612.724
463.323 25091.752  2035.746 14790.515
463.467 25734.949  1967.588 14819.937
463.612 26119.955  2011.236 14872.479
463.756 26415.742  1898.323 14803.589
463.901 27208.574  2019.358 15027.952
464.045 27496.367  1940.596 14870.043
464.189 28022.178  2041.273 15096.744
464.334 27902.824  1944.794 15001.291
464.478 28170.570  1986.660 15191.891
464.622 28009.313  1911.223 15097.473
464.767 28355.711  2025.715 15304.818
464.911 28105.154  1949.088 15232.483
465.055 27769.748  1991.690 15357.587
465.200 27128.512  1915.801 15301.738
465.344 26759.512  1984.033 15378.076
465.488 26311.346  1897.763 15353.734
465.633 25956.008  2020.171 15532.695
465.777 25089.072  1932.412 15498.018
465.921 24297.832  1929.748 15575.919
466.066 23435.869  1876.451 15472.606
466.210 23071.070  1980.160 15657.537
466.354 22378.107  1884.157 15571.886
466.498 21790.371  1970.184 15688.198
466.643 21114.131  1882.633 15680.665
466.787 20692.668  1959.036 15733.271
466.931 20447.119  1928.816 15751.668
467.076 20346.141  1969.624 15853.188
467.220 19927.100  1870.964 15763.523
467.364 19852.355  1909.664 15809.566
467.508 19928.471  1840.186 15748.595
467.652 20607.697  1949.335 16012.512
467.797 20801.340  1875.391 15844.542
467.941 21481.219  1968.304 16040.508
468.085 21924.141  1848.194 15948.298
468.229 22854.561  1950.617 16154.823
468.374 23595.121  1873.642 16038.388
468.518 24656.113  1948.247 16224.313
468.662 25204.107  1857.794 16048.314
468.806 26176.303  1895.480 16213.264
468.950 26914.309  1839.904 16101.789
469.095 28113.348  1948.992 16343.543
469.239 28763.449  1874.061 16303.483
469.383 29443.980  1939.131 16442.328
469.527 29739.863  1855.564 16375.704
469.671 30106.600  1913.674 16433.104
469.815 30554.283  1873.549 16488.039
469.960 30857.523  1918.507 16637.828
470.104 30576.148  1826.972 16553.283
470.248 30478.598  1905.850 16682.543
470.392 29945.957  1861.826 16539.459
470.536 29893.145  1926.113 16713.689
470.680 29317.467  1901.769 16672.959
470.824 28733.816  1938.957 16816.262
470.969 27989.148  1853.781 16828.816
471.113 27333.889  1914.247 16935.361
471.257 26568.482  1854.272 16888.236
471.401 26027.311  1945.116 17046.059
471.545 25114.613  1857.265 16938.342
471.689 24515.695  1927.414 17097.797
471.833 23831.592  1808.213 17001.346
471.977 23596.898  1939.770 17188.777
472.121 23273.736  1892.178 17161.258
472.265 23169.988  1953.609 17326.281
472.409 22757.959  1839.081 17220.941
472.553 23005.705  1930.180 17496.793
472.698 23053.162  1841.614 17362.350
472.842 23582.998  1984.701 17569.301
472.986 23797.830  1863.585 17497.002
473.130 24242.285  1965.270 17666.770
473.274 24642.736  1874.648 17619.219
473.418 25632.648  1975.512 17896.682
473.562 26128.348  1888.913 17759.590
473.706 26927.006  1981.321 17943.891
473.850 27324.994  1887.870 17858.586
473.994 28074.318  1979.198 18038.074
474.138 28611.119  1884.073 18029.682
474.282 29393.959  1984.574 18204.762
474.426 29650.914  1900.090 18117.242
474.570 30065.443  1953.191 18261.006
474.714 30287.504  1869.292 18212.660
474.858 30933.697  1984.295 18443.186
475.002 30958.469  1891.770 18328.664
475.146 31331.268  2008.152 18566.230
475.290 31073.043  1892.992 18497.619
475.434 31120.252  1970.799 18698.574
475.578 30733.949  1901.880 18577.830
475.721 30897.178  1998.125 18796.426
475.865 30630.824  1947.644 18785.871
476.009 30380.252  2008.228 18984.791
476.153 29695.783  1876.611 18854.064
476.297 29558.939  1986.731 19060.592
476.441 29212.766  1899.655 18986.303
476.585 29162.926  2043.639 19176.844
476.729 28700.939  1928.710 19144.287
476.873 28168.176  1995.780 19279.531
477.017 27744.543  1904.333 19253.482
477.161 27622.725  2013.597 19427.842
477.305 27401.313  1955.199 19401.289
477.448 27376.652  2029.757 19624.279
477.592 26850.873  1891.475 19537.092
477.736 26713.766  1971.663 19686.822
477.880 26576.990  1949.196 19660.859
478.024 26934.432  2035.291 19899.850
478.168 26801.070  1996.046 19805.818
478.312 26879.123  2032.754 19928.342
478.455 26719.420  1918.864 19884.012
478.599 27076.953  2022.029 20104.361
478.743 27298.553  1979.649 20077.406
478.887 27784.955  2062.881 20263.088
479.031 27795.320  1961.089 20222.102
479.175 27951.123  2021.134 20300.662
479.318 28057.041  1947.900 20251.396
479.462 28902.545  2053.214 20562.227
479.606 29065.990  1971.547 20414.500
479.750 29586.467  2061.012 20660.266
479.894 29442.604  1937.382 20491.996
480.037 29757.434  2031.414 20728.861
480.181 29906.547  1918.966 20612.506
480.325 30602.285  2054.542 20862.020
480.469 30799.924  1969.274 20813.227
480.613 31200.111  2044.236 21042.953
480.756 31029.152  1961.256 20935.932
480.900 31282.281  2014.785 21060.992
481.044 31501.332  1969.794 21063.799
481.188 31964.063  2078.245 21282.654
481.331 31920.268  1970.131 21263.686
481.475 31875.748  2031.250 21324.432
481.619 31618.824  1930.820 21229.281
481.762 32124.791  2036.241 21520.711
481.906 32168.625  1996.409 21474.900
482.050 32453.111  2082.757 21672.746
482.194 32188.098  1961.842 21574.965
482.337 32126.359  1999.651 21676.600
482.481 32028.439  1924.069 21600.758
482.625 32318.863  1999.494 21776.508
482.768 32466.281  1939.786 21753.920
